节点DUV_HRD08281_00009.txt的数据
Date: Sun Jan 19 20:01:16 CST 2020
User: lab329
Spectrometer: HR+D0828
触发模式: 0
积分时间 (秒): 1.200000E-1
Scans to average: 10
启用暗噪声校正: true
启用非线性校正: false
滑动平均宽度: 0
X轴模式: Wavelengths
Number of Pixels in Spectrum: 2048
>>>>>Begin Spectral Data<<<<<
186.281	-0.43
186.758	-0.43
187.234	-0.43
187.71	-5.93
188.187	-4.13
188.663	-0.53
189.139	0.97
189.615	1.47
190.091	-0.73
190.567	-1.33
191.043	2.27
191.519	5.97
191.995	-2.53
192.471	0.87
192.947	2.87
193.423	0.17
193.899	0.37
194.375	0.67
194.851	1.17
195.327	1.27
195.803	-7.33
196.278	23.57
196.754	4.27
197.23	-1.33
197.706	-2.53
198.181	2.97
198.657	1.07
199.133	-0.73
199.608	1.27
200.084	-0.43
200.559	0.17
201.035	-3.03
201.51	-3.23
201.986	-0.43
202.461	-6.73
202.937	-4.93
203.412	3.07
203.887	-6.93
204.363	0.37
204.838	1.07
205.313	-2.93
205.789	2.07
206.264	-0.93
206.739	-4.63
207.214	2.27
207.689	-1.43
208.165	2.37
208.64	-3.03
209.115	-1.73
209.59	-2.13
210.065	-2.93
210.54	-7.33
211.015	-4.93
211.49	-3.63
211.965	-0.43
212.44	-6.43
212.914	-8.93
213.389	-3.53
213.864	-5.23
214.339	-2.93
214.814	-1.43
215.288	-6.13
215.763	-4.03
216.238	-2.73
216.712	-6.83
217.187	-3.23
217.662	-0.83
218.136	-4.63
218.611	-0.43
219.085	-5.03
219.56	-8.53
220.034	-2.33
220.509	-3.73
220.983	-4.23
221.458	-0.23
221.932	-8.83
222.406	-1.83
222.881	-3.23
223.355	-7.53
223.829	-6.93
224.303	-5.03
224.778	-8.53
225.252	-5.23
225.726	-7.03
226.2	-0.23
226.674	-1.63
227.148	-3.33
227.622	-3.43
228.096	-4.63
228.57	-3.93
229.044	-3.33
229.518	-4.03
229.992	15.57
230.466	133.87
230.94	9.27
231.414	-3.03
231.888	-1.93
232.361	-4.13
232.835	-5.43
233.309	-6.23
233.783	-3.03
234.256	-6.13
234.73	-4.43
235.204	-4.03
235.677	-0.13
236.151	-2.13
236.624	-4.23
237.098	-3.73
237.571	-0.23
238.045	-4.13
238.518	-5.53
238.992	-1.53
239.465	-2.63
239.939	-0.83
240.412	-1.73
240.885	-8.43
241.359	1.37
241.832	-2.43
242.305	-4.83
242.778	-2.53
243.251	-3.53
243.725	-4.13
244.198	-1.83
244.671	-8.33
245.144	-1.83
245.617	-2.93
246.09	-6.33
246.563	1.07
247.036	-3.13
247.509	-3.63
247.982	-2.03
248.455	-9.03
248.928	-11.03
249.4	-4.93
249.873	-0.13
250.346	2.57
250.819	0.77
251.292	-4.73
251.764	-2.83
252.237	-2.13
252.71	-1.73
253.182	4.17
253.655	-1.23
254.127	-2.63
254.6	-0.73
255.073	61.77
255.545	7.07
256.018	0.07
256.49	-3.63
256.962	-2.03
257.435	-2.53
257.907	3.17
258.379	-4.73
258.852	-4.63
259.324	-2.33
259.796	-5.63
260.269	-4.73
260.741	0.67
261.213	-1.93
261.685	-4.83
262.157	-2.13
262.629	-4.13
263.101	-4.73
263.574	0.37
264.046	-3.53
264.518	-2.13
264.99	-0.53
265.461	-2.03
265.933	-5.03
266.405	-6.73
266.877	2.87
267.349	-0.73
267.821	-4.03
268.293	-3.53
268.764	-7.43
269.236	-9.93
269.708	2.47
270.18	-5.13
270.651	-0.63
271.123	4.07
271.594	0.67
272.066	-0.53
272.538	10.37
273.009	0.57
273.481	-5.73
273.952	-5.03
274.423	1.77
274.895	-0.53
275.366	-4.43
275.838	1.57
276.309	0.67
276.78	-2.83
277.252	-1.93
277.723	-5.63
278.194	-0.13
278.665	0.67
279.136	-5.53
279.608	0.87
280.079	-2.93
280.55	-4.03
281.021	-1.43
281.492	-2.83
281.963	-2.53
282.434	0.97
282.905	-1.33
283.376	0.87
283.847	-4.43
284.318	-7.93
284.789	-6.43
285.259	-0.73
285.73	-2.33
286.201	2.97
286.672	-4.73
287.143	-0.13
287.613	0.37
288.084	-2.43
288.555	0.87
289.025	-4.83
289.496	0.67
289.966	-2.43
290.437	-0.53
290.907	3.37
291.378	3.57
291.848	-3.43
292.319	5.57
292.789	-0.03
293.26	4.57
293.73	4.47
294.2	1.17
294.671	2.67
295.141	5.77
295.611	7.77
296.081	8.67
296.552	3.47
297.022	10.67
297.492	11.37
297.962	13.07
298.432	22.57
298.902	25.27
299.372	37.47
299.842	89.47
300.312	214.77
300.782	596.57
301.252	1591.57
301.722	3559.97
302.192	6329.07
302.662	9144.17
303.132	10636.07
303.602	9730.97
304.071	6988.67
304.541	4115.87
305.011	2064.97
305.481	930.67
305.95	405.17
306.42	179.37
306.889	89.87
307.359	60.07
307.829	40.87
308.298	27.37
308.768	27.97
309.237	18.67
309.707	9.37
310.176	21.07
310.645	15.17
311.115	12.77
311.584	7.77
312.054	2.27
312.523	4.27
312.992	4.57
313.461	2.17
313.931	7.97
314.4	7.77
314.869	6.07
315.338	9.47
315.807	0.37
316.276	1.27
316.745	2.87
317.214	0.47
317.683	4.47
318.152	0.87
318.621	3.37
319.09	0.57
319.559	-1.93
320.028	2.57
320.497	-1.03
320.966	-2.93
321.435	-1.13
321.903	0.17
322.372	-0.63
322.841	7.37
323.31	3.07
323.778	4.67
324.247	4.77
324.715	2.07
325.184	5.17
325.653	-3.73
326.121	-0.53
326.59	0.57
327.058	-5.83
327.527	-2.43
327.995	0.57
328.463	-1.83
328.932	1.77
329.4	1.37
329.868	4.27
330.337	2.77
330.805	4.27
331.273	-1.23
331.741	-0.93
332.21	-0.43
332.678	2.17
333.146	-0.93
333.614	2.17
334.082	0.87
334.55	3.77
335.018	1.97
335.486	2.27
335.954	0.47
336.422	-1.43
336.89	-3.93
337.358	1.97
337.826	1.67
338.294	-2.53
338.762	-0.13
339.229	4.97
339.697	-4.33
340.165	4.47
340.633	6.57
341.1	0.37
341.568	5.97
342.035	-0.73
342.503	-1.83
342.971	3.17
343.438	3.57
343.906	-2.83
344.373	-0.73
344.841	-3.63
345.308	0.67
345.776	-1.93
346.243	-4.83
346.71	-3.93
347.178	-4.33
347.645	-0.93
348.112	0.87
348.58	-3.63
349.047	-1.33
349.514	-1.63
349.981	-5.33
350.448	-1.43
350.915	0.67
351.383	-4.83
351.85	-3.33
352.317	-1.33
352.784	-1.53
353.251	-1.23
353.718	-6.13
354.185	1.37
354.651	-0.83
355.118	-4.63
355.585	-2.93
356.052	-1.03
356.519	-1.23
356.986	-2.53
357.452	-4.93
357.919	-1.13
358.386	0.17
358.853	-2.03
359.319	-1.73
359.786	0.97
360.252	-0.63
360.719	1.17
361.185	-4.83
361.652	0.27
362.118	-5.13
362.585	-3.83
363.051	-2.03
363.518	-1.23
363.984	-3.43
364.451	-2.03
364.917	-5.53
365.383	-4.53
365.849	-3.03
366.316	-3.13
366.782	-4.33
367.248	-3.23
367.714	-2.13
368.18	-2.73
368.647	-1.93
369.113	0.87
369.579	-3.93
370.045	-4.13
370.511	-3.73
370.977	-2.43
371.443	-3.13
371.909	-4.43
372.374	-5.13
372.84	-8.23
373.306	-3.13
373.772	-5.13
374.238	-2.13
374.704	-5.13
375.169	-6.43
375.635	3.37
376.101	1.77
376.566	-4.23
377.032	0.07
377.498	-7.93
377.963	-4.03
378.429	-1.73
378.894	-6.73
379.36	-3.93
379.825	-3.23
380.291	-4.43
380.756	0.57
381.222	-4.73
381.687	-4.83
382.152	-5.23
382.618	-1.53
383.083	2.87
383.548	-0.53
384.013	-3.63
384.479	-2.73
384.944	-6.53
385.409	-1.63
385.874	-2.93
386.339	-5.03
386.804	0.67
387.269	-0.03
387.734	-1.93
388.199	2.67
388.664	-0.93
389.129	-4.73
389.594	-1.53
390.059	-5.63
390.524	-0.13
390.989	-0.83
391.453	-2.63
391.918	1.17
392.383	-2.93
392.848	-7.63
393.312	2.37
393.777	-4.83
394.242	-2.23
394.706	2.07
395.171	-1.83
395.635	-0.43
396.1	-7.43
396.565	1.07
397.029	-1.63
397.493	-7.23
397.958	0.37
398.422	-2.33
398.887	-8.43
399.351	-1.13
399.815	-4.33
400.28	-4.73
400.744	2.07
401.208	-5.03
401.672	-5.73
402.137	0.17
402.601	-2.33
403.065	1.17
403.529	-5.13
403.993	-6.33
404.457	-1.43
404.921	-3.43
405.385	-6.43
405.849	-5.43
406.313	-6.13
406.777	-6.13
407.241	-5.63
407.705	-2.13
408.169	-3.33
408.632	-5.03
409.096	-5.13
409.56	-6.13
410.024	-4.83
410.487	-1.53
410.951	-1.03
411.415	-4.43
411.878	-6.83
412.342	-0.13
412.806	-1.23
413.269	-0.43
413.733	-2.53
414.196	-3.73
414.66	-3.03
415.123	-8.33
415.587	-5.03
416.05	-1.93
416.513	-4.43
416.977	-3.33
417.44	-4.83
417.903	-2.03
418.366	-4.13
418.83	-6.23
419.293	1.07
419.756	-1.33
420.219	-3.63
420.682	-3.03
421.145	-3.83
421.608	-2.23
422.072	-7.23
422.535	-5.73
422.998	-5.93
423.46	-7.53
423.923	-4.53
424.386	-6.33
424.849	-5.33
425.312	-3.73
425.775	-4.23
426.238	0.47
426.7	-0.53
427.163	-3.03
427.626	1.77
428.089	0.27
428.551	-4.03
429.014	-9.33
429.477	-0.23
429.939	-6.73
430.402	-4.63
430.864	-4.23
431.327	-4.23
431.789	-1.93
432.252	-4.93
432.714	0.17
433.176	-0.93
433.639	-3.93
434.101	-7.43
434.563	-5.33
435.026	-6.23
435.488	-7.23
435.95	-2.13
436.412	-0.93
436.875	-4.63
437.337	-6.13
437.799	-6.03
438.261	-0.03
438.723	-5.53
439.185	-5.83
439.647	-3.63
440.109	-3.93
440.571	-2.23
441.033	-8.63
441.495	-8.43
441.957	-1.43
442.419	-2.43
442.881	-1.13
443.342	-9.33
443.804	-1.93
444.266	-2.63
444.728	-8.13
445.189	-9.43
445.651	3.07
446.113	-8.43
446.574	-7.93
447.036	-8.13
447.497	-2.83
447.959	-3.63
448.421	-2.73
448.882	0.27
449.343	-1.53
449.805	-6.53
450.266	-8.23
450.728	-3.53
451.189	-6.83
451.65	-3.33
452.112	-1.63
452.573	-2.03
453.034	-0.23
453.495	-0.63
453.957	0.07
454.418	-7.63
454.879	-9.83
455.34	-7.13
455.801	-7.73
456.262	-8.93
456.723	-1.13
457.184	-4.03
457.645	-2.13
458.106	-0.33
458.567	-2.83
459.028	-2.33
459.489	-0.43
459.95	-8.43
460.41	-2.83
460.871	-2.23
461.332	-7.13
461.793	-5.73
462.253	-8.43
462.714	-2.53
463.175	-4.33
463.635	-7.13
464.096	-5.23
464.556	-6.23
465.017	-9.43
465.478	-4.73
465.938	-4.63
466.398	-0.33
466.859	-1.83
467.319	-6.43
467.78	-6.13
468.24	-5.53
468.7	-6.03
469.161	-2.63
469.621	-7.53
470.081	-3.83
470.541	-4.73
471.002	-2.43
471.462	-4.03
471.922	0.37
472.382	-6.13
472.842	-1.53
473.302	-5.53
473.762	-5.03
474.222	1.07
474.682	-6.23
475.142	-9.03
475.602	-8.73
476.062	-4.23
476.522	-2.13
476.982	-4.03
477.442	-8.03
477.901	-4.63
478.361	-2.43
478.821	-6.53
479.281	-4.33
479.74	-5.53
480.2	-5.33
480.659	-6.93
481.119	-4.43
481.579	-2.63
482.038	-7.23
482.498	-7.43
482.957	-0.83
483.417	-3.83
483.876	-4.93
484.336	-6.83
484.795	-6.43
485.254	-7.63
485.714	-2.23
486.173	-3.73
486.632	0.07
487.091	-5.53
487.551	-7.83
488.01	-1.53
488.469	-7.53
488.928	-6.93
489.387	-9.13
489.846	-2.53
490.305	-4.63
490.764	-8.83
491.223	-2.93
491.682	-5.23
492.141	-6.03
492.6	-2.23
493.059	-5.53
493.518	-10.13
493.977	-2.43
494.436	-2.83
494.895	-3.93
495.353	-4.63
495.812	-10.33
496.271	-4.43
496.729	-3.23
497.188	-3.83
497.647	-2.63
498.105	-9.23
498.564	-3.83
499.022	-2.23
499.481	-8.83
499.939	-5.93
500.398	-9.43
500.856	-5.63
501.315	-1.43
501.773	-11.63
502.232	-6.13
502.69	-4.63
503.148	-6.23
503.606	-7.23
504.065	-2.53
504.523	-8.53
504.981	-9.33
505.439	-5.03
505.897	-5.03
506.356	-8.63
506.814	-5.63
507.272	-0.03
507.73	0.77
508.188	-9.33
508.646	-7.23
509.104	-2.23
509.562	-5.63
510.02	-2.03
510.477	-0.93
510.935	-5.43
511.393	-3.63
511.851	-9.23
512.309	-3.83
512.766	-4.13
513.224	-6.53
513.682	-3.93
514.139	-7.53
514.597	-4.13
515.055	-5.33
515.512	-8.53
515.97	-1.63
516.427	-6.33
516.885	-8.23
517.342	-10.43
517.8	-6.43
518.257	-5.23
518.714	-1.83
519.172	-4.53
519.629	-7.33
520.086	-5.53
520.544	-8.73
521.001	-4.83
521.458	-3.43
521.915	-4.43
522.373	-8.43
522.83	-9.33
523.287	-2.83
523.744	-3.53
524.201	-3.83
524.658	-1.03
525.115	-3.73
525.572	-5.93
526.029	0.27
526.486	-5.53
526.943	-2.43
527.4	-3.43
527.857	-6.43
528.313	-5.43
528.77	-6.63
529.227	-8.83
529.684	-4.43
530.14	-7.53
530.597	-11.93
531.054	-0.63
531.51	-9.23
531.967	-5.63
532.423	-5.73
532.88	-5.53
533.337	-6.73
533.793	-4.13
534.25	-7.73
534.706	-5.23
535.162	-7.93
535.619	-7.93
536.075	-7.83
536.531	-6.73
536.988	-1.83
537.444	-3.43
537.9	-8.93
538.356	-6.23
538.813	-5.63
539.269	-2.33
539.725	-7.53
540.181	-5.13
540.637	-0.73
541.093	-7.83
541.549	-4.73
542.005	-8.03
542.461	-5.93
542.917	-2.63
543.373	-9.73
543.829	-10.33
544.285	-6.43
544.741	-5.33
545.197	-4.53
545.652	-6.43
546.108	0.87
546.564	-5.53
547.02	-5.33
547.475	-10.13
547.931	-1.93
548.387	-7.73
548.842	-4.93
549.298	-0.23
549.753	-8.93
550.209	-3.83
550.664	-2.33
551.12	-8.73
551.575	-5.43
552.031	-6.63
552.486	-7.03
552.941	-2.03
553.397	16.87
553.852	-4.13
554.307	-2.63
554.762	-0.73
555.218	-4.43
555.673	-4.43
556.128	-11.43
556.583	-4.83
557.038	-8.93
557.493	-9.03
557.948	-6.53
558.403	-7.43
558.858	-4.93
559.313	-10.03
559.768	-6.83
560.223	-6.03
560.678	-10.03
561.133	-5.13
561.588	-3.23
562.043	-5.43
562.497	-7.23
562.952	-5.23
563.407	-10.83
563.862	-2.53
564.316	-5.63
564.771	-10.03
565.226	-2.53
565.68	-6.13
566.135	-11.53
566.589	-4.63
567.044	-10.03
567.498	-8.43
567.953	-4.53
568.407	-7.93
568.862	-8.23
569.316	-3.83
569.77	-6.43
570.225	-5.73
570.679	-10.53
571.133	-9.83
571.587	-9.33
572.042	-5.73
572.496	-2.23
572.95	-7.13
573.404	-8.03
573.858	-3.23
574.312	-6.83
574.766	-11.73
575.22	-7.03
575.674	-7.23
576.128	-4.73
576.582	-10.93
577.036	-8.53
577.49	-5.63
577.944	-3.23
578.398	-11.33
578.852	-5.93
579.305	-10.23
579.759	-12.23
580.213	-7.93
580.666	-7.33
581.12	-8.73
581.574	-8.63
582.027	-3.43
582.481	-3.53
582.935	-10.93
583.388	-8.03
583.842	-6.33
584.295	-6.53
584.748	-1.23
585.202	-3.43
585.655	-9.13
586.109	-5.83
586.562	-7.23
587.015	-5.33
587.469	-10.33
587.922	-9.53
588.375	-7.83
588.828	-6.73
589.281	-12.43
589.735	-1.73
590.188	-9.33
590.641	-8.83
591.094	-5.33
591.547	-6.53
592	-6.83
592.453	-6.43
592.906	-8.13
593.359	-5.73
593.812	-4.93
594.265	-4.83
594.717	-5.23
595.17	-8.03
595.623	-7.13
596.076	-6.73
596.529	-5.73
596.981	-1.43
597.434	-4.83
597.887	-8.33
598.339	-8.23
598.792	-7.13
599.245	-7.83
599.697	-6.73
600.15	-8.63
600.602	-5.13
601.055	-6.03
601.507	-3.03
601.959	-1.23
602.412	-5.93
602.864	-2.83
603.316	-4.83
603.769	-5.73
604.221	-2.93
604.673	-4.03
605.126	-9.43
605.578	-6.53
606.03	-5.93
606.482	-5.93
606.934	-5.23
607.386	-12.33
607.838	-2.33
608.29	-3.83
608.742	-5.43
609.194	-7.93
609.646	-3.13
610.098	-3.63
610.55	-4.53
611.002	-5.63
611.454	-7.63
611.906	-7.53
612.357	-8.33
612.809	-6.73
613.261	-9.33
613.713	-9.93
614.164	-3.53
614.616	-8.83
615.068	-5.43
615.519	-7.63
615.971	-8.63
616.422	-2.53
616.874	-11.63
617.325	-8.73
617.777	-10.43
618.228	-9.83
618.68	-5.53
619.131	-10.13
619.582	-10.73
620.034	-6.73
620.485	-8.83
620.936	-6.43
621.387	-8.23
621.839	-10.03
622.29	-6.23
622.741	-6.83
623.192	-10.73
623.643	-4.13
624.094	-5.53
624.545	-8.53
624.996	-3.73
625.447	-4.73
625.898	-8.43
626.349	-2.13
626.8	-13.63
627.251	-5.63
627.702	-5.33
628.153	-6.73
628.604	1.67
629.054	-6.43
629.505	-12.33
629.956	-3.63
630.406	-11.73
630.857	-1.83
631.308	-6.73
631.758	-13.13
632.209	-6.53
632.66	-6.93
633.11	-5.13
633.561	-5.23
634.011	-5.03
634.461	-6.33
634.912	-1.43
635.362	-7.93
635.813	-4.73
636.263	-5.83
636.713	-5.53
637.164	-7.13
637.614	-10.23
638.064	-7.03
638.514	-3.53
638.964	-12.43
639.415	-5.33
639.865	-2.73
640.315	-10.63
640.765	-8.83
641.215	-5.23
641.665	-9.23
642.115	-3.13
642.565	-6.63
643.015	-4.03
643.465	-5.13
643.915	-12.83
644.364	-6.03
644.814	-10.93
645.264	-7.63
645.714	-1.63
646.163	-8.53
646.613	-4.93
647.063	-10.03
647.513	-8.23
647.962	-7.73
648.412	-6.33
648.861	-7.03
649.311	-8.13
649.76	-5.13
650.21	-8.23
650.659	-5.93
651.109	-8.73
651.558	-6.43
652.008	-11.73
652.457	-9.93
652.906	-9.33
653.356	-3.93
653.805	-6.43
654.254	-1.33
654.703	-6.63
655.152	-5.33
655.602	-10.13
656.051	-6.93
656.5	-7.73
656.949	-9.63
657.398	-5.93
657.847	-3.33
658.296	-12.23
658.745	-10.73
659.194	-6.83
659.643	-5.83
660.092	-5.33
660.541	-6.83
660.989	-8.23
661.438	-6.93
661.887	-5.03
662.336	-6.23
662.784	-7.93
663.233	-7.03
663.682	-8.63
664.13	-11.33
664.579	-6.73
665.028	-8.03
665.476	-7.53
665.925	-4.73
666.373	-6.43
666.822	-7.53
667.27	-4.03
667.719	-8.03
668.167	-5.73
668.615	-7.03
669.064	-5.23
669.512	-14.83
669.96	0.77
670.408	-7.13
670.857	-5.33
671.305	-4.03
671.753	-13.53
672.201	-4.33
672.649	-10.73
673.097	-9.03
673.545	-2.53
673.993	-10.43
674.441	-8.73
674.889	-1.93
675.337	-10.83
675.785	-5.13
676.233	-4.43
676.681	-8.03
677.129	-5.23
677.577	-7.23
678.025	-5.03
678.472	-9.43
678.92	-10.03
679.368	-4.83
679.815	-5.93
680.263	-5.23
680.711	-5.03
681.158	-15.43
681.606	-10.23
682.053	-6.23
682.501	-9.43
682.948	-0.23
683.396	-4.23
683.843	-4.33
684.291	-6.13
684.738	-4.03
685.185	-2.73
685.633	5.07
686.08	-5.03
686.527	-6.03
686.974	-7.43
687.422	-9.93
687.869	-6.23
688.316	-10.93
688.763	-9.33
689.21	-4.73
689.657	-8.93
690.104	-4.53
690.551	-3.93
690.998	-3.03
691.445	0.67
691.892	-5.23
692.339	-7.33
692.786	-6.73
693.233	-5.93
693.68	-5.53
694.127	1.47
694.573	-9.53
695.02	-4.13
695.467	-7.53
695.913	-8.73
696.36	-5.23
696.807	-6.73
697.253	-2.43
697.7	-2.63
698.146	-8.43
698.593	-8.93
699.039	-4.43
699.486	-4.73
699.932	-4.53
700.379	-9.23
700.825	-3.73
701.272	-1.13
701.718	-3.83
702.164	-4.13
702.61	-8.93
703.057	-5.93
703.503	4.17
703.949	-5.93
704.395	-7.23
704.841	-4.43
705.287	-7.43
705.734	-4.03
706.18	-8.43
706.626	-4.73
707.072	-5.33
707.518	-7.13
707.964	-8.23
708.409	-0.13
708.855	-2.33
709.301	-2.33
709.747	-0.73
710.193	-6.73
710.639	-6.23
711.084	-4.83
711.53	-3.23
711.976	-7.63
712.421	-7.03
712.867	-6.53
713.313	-4.83
713.758	-7.23
714.204	-1.73
714.649	-1.63
715.095	-2.83
715.54	-9.93
715.986	-10.03
716.431	-6.23
716.877	-2.63
717.322	-12.23
717.767	-1.63
718.213	-4.33
718.658	-8.43
719.103	-5.63
719.548	-3.53
719.994	-7.03
720.439	-4.83
720.884	-8.13
721.329	-2.63
721.774	-1.73
722.219	-3.43
722.664	-1.53
723.109	-6.43
723.554	-7.63
723.999	-3.33
724.444	-6.83
724.889	-5.63
725.334	-5.73
725.779	-7.93
726.223	-10.03
726.668	-6.13
727.113	-7.63
727.558	-1.83
728.002	-5.93
728.447	-5.63
728.892	-1.73
729.336	-5.83
729.781	-4.03
730.225	-6.23
730.67	-8.73
731.114	-3.13
731.559	0.77
732.003	-2.83
732.448	-2.53
732.892	-7.13
733.337	-2.33
733.781	-4.93
734.225	-4.93
734.67	-2.03
735.114	-2.43
735.558	-8.63
736.002	-4.33
736.446	-8.33
736.891	-4.63
737.335	-6.93
737.779	-8.33
738.223	-5.83
738.667	-5.73
739.111	-7.63
739.555	1.17
739.999	-2.13
740.443	-3.03
740.887	-4.53
741.33	-5.83
741.774	-1.03
742.218	-6.23
742.662	-4.43
743.106	-3.43
743.549	-5.03
743.993	-4.93
744.437	-11.33
744.88	-8.53
745.324	-5.93
745.768	-1.03
746.211	-6.43
746.655	-4.43
747.098	-5.73
747.542	-4.73
747.985	-0.73
748.429	-3.53
748.872	-5.83
749.315	-4.13
749.759	-3.23
750.202	-3.83
750.645	-4.43
751.089	-4.03
751.532	-6.03
751.975	-6.53
752.418	-2.23
752.861	-4.23
753.305	-7.53
753.748	-6.03
754.191	-4.33
754.634	-0.93
755.077	-2.63
755.52	-2.33
755.963	-6.73
756.406	-4.03
756.849	-4.33
757.291	2.47
757.734	-4.33
758.177	-6.33
758.62	-4.63
759.063	-6.43
759.505	-5.93
759.948	0.97
760.391	-8.03
760.833	-3.73
761.276	-2.93
761.719	-5.43
762.161	0.27
762.604	-6.73
763.046	-11.13
763.489	-2.83
763.931	-9.33
764.374	-8.13
764.816	-5.63
765.258	-8.83
765.701	-6.33
766.143	-7.93
766.585	-4.33
767.028	-9.53
767.47	-5.93
767.912	-2.43
768.354	-3.13
768.796	-4.73
769.238	-3.73
769.681	-10.33
770.123	-6.93
770.565	-1.33
771.007	-6.53
771.449	-6.83
771.891	-4.43
772.333	-10.53
772.774	-5.43
773.216	-7.03
773.658	-3.83
774.1	-2.93
774.542	-7.63
774.984	-6.23
775.425	-4.33
775.867	-6.73
776.309	-3.23
776.75	-6.53
777.192	-6.33
777.634	-5.13
778.075	-6.73
778.517	-7.23
778.958	-6.73
779.4	-4.83
779.841	-11.03
780.283	-1.93
780.724	-1.13
781.165	4.27
781.607	-7.83
782.048	-5.03
782.489	1.07
782.931	-1.53
783.372	-4.53
783.813	-1.53
784.254	-10.23
784.695	-1.33
785.136	-7.23
785.578	-2.03
786.019	-6.63
786.46	-3.43
786.901	-9.93
787.342	-0.33
787.783	-5.63
788.224	-4.03
788.664	1.27
789.105	-6.33
789.546	-9.63
789.987	-4.33
790.428	-9.03
790.869	-3.93
791.309	-8.63
791.75	-5.03
792.191	-0.13
792.631	-9.63
793.072	-2.23
793.513	-5.53
793.953	-9.43
794.394	-4.23
794.834	-3.23
795.275	-4.03
795.715	-4.73
796.156	-9.63
796.596	-4.43
797.036	-3.23
797.477	-0.63
797.917	-9.13
798.357	-3.43
798.798	-9.73
799.238	-6.03
799.678	-7.23
800.118	-2.43
800.558	-2.13
800.998	-4.93
801.439	-3.13
801.879	-7.33
802.319	-4.53
802.759	-1.13
803.199	-8.53
803.639	-2.93
804.079	-8.23
804.518	-5.13
804.958	-1.23
805.398	-3.13
805.838	-3.83
806.278	-0.83
806.718	-10.73
807.157	-2.93
807.597	-6.23
808.037	-9.83
808.476	-1.63
808.916	-5.63
809.356	-7.53
809.795	-3.83
810.235	-7.33
810.674	-2.83
811.114	-3.63
811.553	-11.63
811.993	-3.23
812.432	-6.93
812.871	-6.93
813.311	-2.43
813.75	-6.93
814.189	-2.33
814.629	-1.33
815.068	-4.13
815.507	1.97
815.946	-2.33
816.385	-5.53
816.824	1.47
817.263	-3.23
817.703	-10.93
818.142	-6.43
818.581	-8.73
819.02	-1.13
819.459	-3.83
819.897	-4.63
820.336	-4.43
820.775	-5.03
821.214	-2.23
821.653	-3.63
822.092	-11.43
822.53	-1.33
822.969	-8.53
823.408	-8.43
823.847	1.17
824.285	-3.53
824.724	-2.83
825.162	-4.63
825.601	-4.93
826.04	-5.53
826.478	-5.13
826.916	-3.43
827.355	-2.83
827.793	-4.63
828.232	-3.33
828.67	-2.33
829.108	-4.63
829.547	-3.33
829.985	-3.23
830.423	-6.03
830.862	-0.63
831.3	-8.53
831.738	-6.33
832.176	-4.93
832.614	-7.93
833.052	-4.63
833.49	-0.73
833.928	-8.33
834.366	-1.13
834.804	-2.33
835.242	-3.23
835.68	-3.23
836.118	-6.33
836.556	-8.03
836.994	1.97
837.432	-6.03
837.869	21.97
838.307	-2.93
838.745	-5.53
839.183	-5.73
839.62	-4.53
840.058	-3.73
840.496	-1.63
840.933	-1.03
841.371	-5.73
841.808	-3.73
842.246	-3.53
842.683	-5.43
843.121	-4.03
843.558	-2.83
843.995	-5.23
844.433	-4.53
844.87	-0.33
845.307	-1.13
845.745	-4.63
846.182	-0.33
846.619	-4.63
847.056	-1.43
847.494	-2.53
847.931	-1.83
848.368	-2.43
848.805	-4.43
849.242	-5.43
849.679	-0.93
850.116	-3.73
850.553	-6.33
850.99	-1.43
851.427	-2.23
851.864	-3.23
852.301	-0.23
852.737	-2.13
853.174	-3.53
853.611	-3.73
854.048	-4.23
854.484	0.17
854.921	-4.43
855.358	-8.63
855.794	-2.23
856.231	-6.73
856.668	-5.53
857.104	-3.03
857.541	-3.43
857.977	-5.13
858.414	-6.53
858.85	-2.33
859.286	-1.73
859.723	-8.13
860.159	-2.73
860.596	2.07
861.032	8.57
861.468	3.27
861.904	-3.33
862.341	-11.33
862.777	-5.43
863.213	-7.03
863.649	-5.23
864.085	-3.43
864.521	-4.83
864.957	-4.93
865.393	-10.43
865.829	-3.33
866.265	-2.83
866.701	-1.33
867.137	-5.03
867.573	-0.83
868.009	-2.03
868.445	-6.83
868.88	-0.73
869.316	-9.33
869.752	-3.63
870.188	-4.33
870.623	-4.13
871.059	1.67
871.495	1.67
871.93	-0.53
872.366	1.17
872.801	-1.73
873.237	-4.13
873.672	-6.73
874.108	-4.93
874.543	-4.23
874.979	0.97
875.414	-1.13
875.849	0.47
876.285	-1.43
876.72	-4.23
877.155	-3.63
877.59	0.37
878.026	3.27
878.461	-6.63
878.896	-5.83
879.331	-6.63
879.766	-4.93
880.201	-1.93
880.636	-0.43
881.071	-0.93
881.506	-3.63
881.941	-1.73
882.376	-6.23
882.811	-1.03
883.246	-4.93
883.681	-0.33
884.116	-3.13
884.55	-8.43
884.985	-2.93
885.42	-4.53
885.855	-6.13
886.289	-2.03
886.724	-7.13
887.159	-5.43
887.593	-1.13
888.028	-6.83
888.462	0.37
888.897	-2.73
889.331	-6.03
889.766	-4.83
890.2	0.57
890.634	-6.23
891.069	-3.93
891.503	-5.03
891.937	-6.13
892.372	-1.43
892.806	1.27
893.24	-3.03
893.674	-3.43
894.109	-8.83
894.543	-1.53
894.977	-4.23
895.411	-0.33
895.845	-1.23
896.279	-6.43
896.713	-2.63
897.147	-5.83
897.581	-3.23
898.015	-2.73
898.449	-6.83
898.883	-2.73
899.316	-0.53
899.75	-3.33
900.184	-0.73
900.618	-1.23
901.051	-6.33
901.485	-0.43
901.919	-4.63
902.352	-6.43
902.786	-1.43
903.22	-7.43
903.653	-1.53
904.087	2.67
904.52	-0.73
904.954	1.07
905.387	-3.43
905.82	-7.03
906.254	-4.63
906.687	-8.23
907.121	2.97
907.554	-7.13
907.987	-5.83
908.42	-1.33
908.854	-2.33
909.287	-5.33
909.72	-3.33
910.153	-6.63
910.586	-2.33
911.019	-0.83
911.452	-4.73
911.885	-3.53
912.318	-8.53
912.751	-8.03
913.184	-7.13
913.617	-5.03
914.05	-4.43
914.483	-7.73
914.916	-11.13
915.348	-3.43
915.781	-3.13
916.214	-1.03
916.647	-2.53
917.079	-1.23
917.512	-5.43
917.944	-4.63
918.377	-2.03
918.81	-2.43
919.242	-5.43
919.675	-5.43
920.107	1.37
920.54	-1.73
920.972	-5.63
921.404	3.57
921.837	-7.33
922.269	-4.73
922.701	-7.03
923.134	-2.53
923.566	-2.83
923.998	-6.83
924.43	-4.23
924.863	0.77
925.295	-6.13
925.727	2.87
926.159	-4.83
926.591	-5.73
927.023	-8.43
927.455	-3.13
927.887	-2.33
928.319	-3.23
928.751	-2.93
929.183	-7.13
929.615	-2.33
930.046	-5.23
930.478	-4.93
930.91	-1.23
931.342	-6.93
931.773	-0.73
932.205	-1.93
932.637	-4.43
933.068	-1.83
933.5	-3.33
933.932	1.47
934.363	-3.13
934.795	-4.53
935.226	-2.03
935.658	-4.03
936.089	-1.23
936.521	1.87
936.952	-3.83
937.383	-4.23
937.815	-7.13
938.246	-5.43
938.677	-1.33
939.108	-4.33
939.54	-7.73
939.971	-5.23
940.402	-5.23
940.833	-2.93
941.264	-3.93
941.695	-2.63
942.126	-4.73
942.557	-3.23
942.988	-7.43
943.419	-2.63
943.85	-5.23
944.281	-3.13
944.712	-1.73
945.143	-6.43
945.574	-0.33
946.004	-2.93
946.435	-8.63
946.866	-3.23
947.297	-5.03
947.727	-5.63
948.158	-7.03
948.588	-7.23
949.019	-5.33
949.45	-1.83
949.88	-2.73
950.311	-6.63
950.741	0.67
951.172	-3.73
951.602	-5.23
952.032	-8.33
952.463	-4.13
952.893	-5.23
953.323	-3.43
953.754	1.07
954.184	4.77
954.614	-6.23
955.044	0.67
955.475	-4.13
955.905	-5.73
956.335	-6.73
956.765	-4.63
957.195	-4.03
957.625	-7.13
958.055	-5.83
958.485	-5.73
958.915	-3.33
959.345	-6.73
959.775	-4.73
960.204	-2.13
960.634	-2.03
961.064	-0.83
961.494	-1.93
961.924	0.57
962.353	-5.93
962.783	-4.33
963.213	-2.53
963.642	-8.43
964.072	-2.53
964.501	1.17
964.931	-4.03
965.361	-2.23
965.79	0.27
966.219	-2.23
966.649	1.57
967.078	-9.73
967.508	-1.63
967.937	-4.43
968.366	-9.13
968.796	-0.83
969.225	-2.33
969.654	0.47
970.083	-8.83
970.513	-6.93
970.942	-11.43
971.371	-5.33
971.8	-5.03
972.229	-1.23
972.658	-6.53
973.087	-5.53
973.516	1.47
973.945	-8.53
974.374	-0.03
974.803	-2.23
975.232	-9.23
975.66	-6.23
976.089	-1.83
976.518	-4.63
976.947	-1.33
977.375	-3.13
977.804	-5.23
978.233	-3.03
978.661	-10.33
979.09	-6.23
979.519	-4.33
979.947	-7.63
980.376	0.37
980.804	-1.93
981.233	-4.03
981.661	-1.53
982.09	-5.33
982.518	-3.53
982.946	-2.73
983.375	-4.73
983.803	-2.53
984.231	-5.73
984.659	-10.73
985.088	-5.83
985.516	-4.63
985.944	-7.13
986.372	-2.43
986.8	-3.03
987.228	-0.33
987.656	-6.03
988.084	-9.33
988.512	-6.03
988.94	-8.33
989.368	-5.43
989.796	-3.43
990.224	-4.93
990.652	-2.13
991.08	-3.73
991.507	-5.33
991.935	-2.73
992.363	-5.43
992.791	-5.03
993.218	-1.33
993.646	-7.43
994.074	-2.63
994.501	-8.63
994.929	-6.63
995.356	-2.33
995.784	-1.93
996.211	-3.83
996.639	-3.23
997.066	-4.13
997.493	-4.63
997.921	-5.63
998.348	-5.03
998.775	-1.13
999.203	-4.23
999.63	-5.03
1000.057	-2.23
1000.484	8.57
1000.912	-6.53
1001.339	-3.93
1001.766	-5.63
1002.193	1.57
1002.62	-5.43
1003.047	-4.23
1003.474	-5.73
1003.901	-4.03
1004.328	-4.83
1004.755	-3.73
1005.182	-6.33
1005.608	-2.93
1006.035	-5.73
1006.462	-3.23
1006.889	-2.43
1007.316	0.97
1007.742	-1.43
1008.169	-4.63
1008.596	-5.53
1009.022	-6.53
1009.449	-3.23
1009.875	-4.33
1010.302	-3.63
1010.728	-3.73
1011.155	-5.83
1011.581	-1.23
1012.008	-0.83
1012.434	-4.83
1012.861	-5.93
1013.287	-9.03
1013.713	-2.33
1014.139	-6.83
1014.566	-6.73
1014.992	-3.53
1015.418	-4.33
1015.844	-5.93
1016.27	-0.83
1016.697	-5.73
1017.123	-1.33
1017.549	-5.83
1017.975	-7.73
1018.401	-5.23
1018.827	-7.53
1019.253	-6.53
1019.679	-3.63
1020.104	-7.43
1020.53	0.67
1020.956	-0.93
1021.382	-7.83
1021.808	-3.63
1022.233	-7.03
1022.659	-8.43
1023.085	-2.53
1023.51	-9.03
1023.936	-5.13
1024.362	1.07
1024.787	-4.93
1025.213	-1.83
1025.638	-4.33
1026.064	-8.43
1026.489	-1.13
1026.915	-4.03
1027.34	-3.63
1027.765	-3.53
1028.191	-3.13
1028.616	-7.13
1029.041	-3.33
1029.467	-7.13
1029.892	-1.33
1030.317	-12.13
1030.742	-4.83
1031.167	-1.93
1031.592	-5.73
1032.018	-6.43
1032.443	-12.33
1032.868	-5.03
1033.293	-4.23
1033.718	-11.73
1034.143	-4.93
1034.567	-5.23
1034.992	-14.93
1035.417	-3.13
1035.842	-3.63
1036.267	-4.53
1036.692	-1.73
1037.116	-6.73
1037.541	-7.93
1037.966	-2.53
1038.39	-10.73
1038.815	-0.93
1039.24	-3.63
1039.664	-0.93
1040.089	-6.53
1040.513	-4.13
1040.938	-7.23
1041.362	-4.23
1041.787	-9.13
1042.211	-2.53
1042.635	-1.03
1043.06	-11.43
1043.484	-11.53
1043.908	-8.13
1044.333	-4.23
1044.757	-6.73
1045.181	-3.93
1045.605	-8.23
1046.029	-2.83
1046.454	-8.43
1046.878	-3.43
1047.302	-1.93
1047.726	-5.23
1048.15	-4.73
1048.574	-7.33
1048.998	-3.43
1049.422	0.47
1049.845	-9.83
1050.269	-5.33
1050.693	-3.93
1051.117	-7.43
1051.541	-5.93
1051.964	-9.23
1052.388	-8.63
1052.812	-4.03
1053.235	-6.63
1053.659	-10.83
1054.083	-6.63
1054.506	-8.13
1054.93	-8.23
1055.353	-2.23
1055.777	-5.63
1056.2	-4.53
1056.624	-9.93
1057.047	-8.13
1057.471	-4.83
1057.894	-10.53
1058.317	-3.23
1058.74	-2.43
1059.164	-4.13
1059.587	-2.23
1060.01	-6.63
1060.433	-4.23
1060.856	-2.43
1061.28	-7.63
1061.703	-0.03
1062.126	-5.13
1062.549	-5.43
1062.972	-5.73
1063.395	-0.63
1063.818	-7.63
1064.241	-4.03
1064.663	-11.43
1065.086	-1.73
1065.509	-3.03
1065.932	-5.13
1066.355	-3.43
1066.777	-2.23
1067.2	-4.23
1067.623	-4.53
1068.046	-10.53
1068.468	-6.23
1068.891	-3.43
1069.313	-8.43
1069.736	-0.63
1070.158	-2.73
1070.581	-6.53
1071.003	-5.23
1071.426	-4.03
1071.848	-5.43
1072.271	-5.33
1072.693	-7.73
1073.115	-2.63
1073.538	-7.23
1073.96	-9.33
1074.382	-8.03
1074.804	-11.23
1075.226	-6.23
1075.649	-6.33
1076.071	-3.13
1076.493	-4.03
1076.915	-2.63
1077.337	-4.13
1077.759	-5.43
1078.181	-6.83
1078.603	-10.13
1079.025	-5.83
1079.447	-10.73
1079.868	-10.03
1080.29	-3.93
1080.712	-9.73
1081.134	-4.43
1081.556	-6.53
1081.977	-3.23
1082.399	-2.03
1082.821	-5.23
1083.242	-6.63
1083.664	-3.13
1084.085	-6.83
1084.507	-5.33
1084.928	-7.23
1085.35	-1.33
1085.771	-4.03
1086.193	-9.73
1086.614	-7.63
1087.036	-6.53
1087.457	-8.13
1087.878	-5.23
1088.3	-5.53
1088.721	-7.93
1089.142	-8.63
1089.563	-4.33
1089.984	-5.43
1090.406	-9.03
1090.827	-8.73
1091.248	-5.53
1091.669	-3.73
1092.09	-1.43
1092.511	-7.03
1092.932	-10.63
1093.353	-6.73
1093.774	-7.03
1094.195	-2.23
1094.615	2.67
1095.036	-6.63
1095.457	-3.33
1095.878	-3.13
1096.299	-7.63
1096.719	-7.93
1097.14	-4.63
1097.561	-6.53
1097.981	-6.53
1098.402	-8.23
1098.822	-8.23
1099.243	-2.73
1099.663	-7.03
1100.084	-5.93
1100.504	-2.43
1100.925	-8.33
1101.345	-3.53
1101.766	-5.03
1102.186	-11.33
1102.606	-7.43
1103.026	-5.43
1103.447	-3.43
1103.867	-6.43
1104.287	-2.53
1104.707	-5.53
